# t09572g430x+000m0                                           
# 1253512947.kgf                                              
# data\m44.fits                                               
# xmin,xmax,dshft,yshift,fz:  12329.00  13153.00   0.00000   0.00000   1.00000
# vw,rp,ifabs:   0.0    28300.   0
#                                                                     
# wave(A)   obs.spec.  the.spec.  overplot1  overplot2  overplot3  overplot4
12535.000      1.0025     1.0000
12535.100      1.0025     1.0000
12535.200      1.0025     1.0000
12535.300      1.0024     1.0000
12535.400      1.0024     1.0000
12535.500      1.0024     1.0000
12535.600      1.0024     1.0000
12535.700      1.0023     1.0000
12535.800      1.0023     1.0000
12535.900      1.0023     0.9983
12536.000      1.0022     0.9983
12536.100      1.0022     0.9984
12536.200      1.0022     0.9984
12536.300      1.0022     0.9985
12536.400      1.0021     0.9985
12536.500      1.0021     0.9984
12536.600      1.0021     0.9984
12536.700      1.0020     0.9984
12536.800      0.9993     0.9984
12536.900      0.9954     0.9986
12537.000      0.9935     0.9987
12537.100      0.9934     0.9988
12537.200      0.9935     0.9988
12537.300      0.9938     0.9989
12537.400      0.9949     0.9989
12537.500      0.9972     0.9989
12537.600      0.9995     0.9989
12537.700      1.0015     0.9989
12537.800      1.0027     0.9989
12537.900      0.9999     0.9989
12538.000      0.9971     0.9989
12538.100      0.9983     0.9989
12538.200      0.9996     0.9989
12538.300      0.9986     0.9989
12538.400      0.9972     0.9989
12538.500      0.9963     0.9989
12538.600      0.9962     0.9989
12538.700      0.9973     0.9989
12538.800      0.9990     0.9989
12538.900      0.9974     0.9989
12539.000      0.9922     0.9989
12539.100      0.9898     0.9989
12539.200      0.9934     0.9989
12539.300      0.9984     0.9989
12539.400      1.0040     0.9989
12539.500      1.0086     0.9989
12539.600      1.0040     0.9988
12539.700      0.9994     0.9988
12539.800      0.9957     0.9988
12539.900      0.9933     0.9988
12540.000      0.9955     0.9988
12540.100      0.9984     0.9989
12540.200      0.9994     0.9989
12540.300      0.9997     0.9989
12540.400      1.0017     0.9989
12540.500      1.0048     0.9989
12540.600      1.0071     0.9989
12540.700      1.0076     0.9989
12540.800      1.0062     0.9988
12540.900      1.0033     0.9988
12541.000      0.9999     0.9987
12541.100      0.9963     0.9986
12541.200      0.9936     0.9985
12541.300      0.9977     0.9985
12541.400      1.0018     0.9985
12541.500      0.9982     0.9986
12541.600      0.9865     0.9987
12541.700      0.9514     0.9988
12541.800      0.9135     0.9989
12541.900      0.8821     0.9989
12542.000      0.8634     0.9989
12542.100      0.8745     0.9989
12542.200      0.9027     0.9989
12542.300      0.9354     0.9989
12542.400      0.9691     0.9989
12542.500      0.9954     0.9989
12542.600      1.0053     0.9989
12542.700      1.0078     0.9989
12542.800      1.0064     0.9989
12542.900      1.0052     0.9989
12543.000      1.0059     0.9989
12543.100      1.0066     0.9989
12543.200      1.0072     0.9989
12543.300      1.0074     0.9989
12543.400      1.0031     0.9989
12543.500      0.9982     0.9989
12543.600      1.0002     0.9989
12543.700      1.0043     0.9989
12543.800      1.0072     0.9989
12543.900      1.0077     0.9989
12544.000      1.0051     0.9989
12544.100      1.0010     0.9990
12544.200      0.9984     0.9990
12544.300      0.9984     0.9989
12544.400      0.9987     0.9989
12544.500      0.9991     0.9989
12544.600      0.9999     0.9989
12544.700      1.0023     0.9989
12544.800      1.0060     0.9988
12544.900      1.0118     0.9987
12545.000      1.0176     0.9985
12545.100      1.0128     0.9982
12545.200      1.0066     0.9978
12545.300      1.0025     0.9976
12545.400      1.0005     0.9976
12545.500      1.0008     0.9978
12545.600      1.0017     0.9981
12545.700      1.0025     0.9985
12545.800      1.0028     0.9987
12545.900      1.0026     0.9988
12546.000      1.0020     0.9989
12546.100      1.0020     0.9989
12546.200      1.0034     0.9989
12546.300      1.0047     0.9989
12546.400      1.0043     0.9989
12546.500      1.0030     0.9989
12546.600      1.0006     0.9989
12546.700      0.9981     0.9989
12546.800      0.9980     0.9989
12546.900      0.9981     0.9989
12547.000      0.9978     0.9989
12547.100      0.9973     0.9989
12547.200      0.9979     0.9989
12547.300      0.9993     0.9989
12547.400      1.0012     0.9989
12547.500      1.0032     0.9989
12547.600      1.0045     0.9988
12547.700      1.0046     0.9988
12547.800      1.0048     0.9987
12547.900      1.0056     0.9987
12548.000      1.0059     0.9986
12548.100      1.0030     0.9986
12548.200      0.9998     0.9986
12548.300      0.9966     0.9987
12548.400      0.9933     0.9987
12548.500      0.9896     0.9986
12548.600      0.9859     0.9985
12548.700      0.9843     0.9980
12548.800      0.9849     0.9968
12548.900      0.9887     0.9936
12549.000      0.9934     0.9864
12549.100      0.9967     0.9729
12549.200      0.9983     0.9527
12549.300      0.9989     0.9294
12549.400      0.9992     0.9106
12549.500      0.9996     0.9041
12549.600      1.0002     0.9129
12549.700      1.0006     0.9330
12549.800      1.0002     0.9563
12549.900      0.9998     0.9755
12550.000      0.9995     0.9879
12550.100      0.9991     0.9944
12550.200      0.9976     0.9971
12550.300      0.9960     0.9981
12550.400      0.9961     0.9985
12550.500      0.9965     0.9986
12550.600      0.9959     0.9987
12550.700      0.9948     0.9987
12550.800      0.9945     0.9987
12550.900      0.9955     0.9988
12551.000      0.9978     0.9988
12551.100      1.0009     0.9988
12551.200      1.0036     0.9988
12551.300      1.0046     0.9988
12551.400      1.0048     0.9988
12551.500      1.0041     0.9988
12551.600      1.0024     0.9988
12551.700      0.9992     0.9988
12551.800      0.9959     0.9988
12551.900      0.9970     0.9989
12552.000      0.9985     0.9989
12552.100      0.9993     0.9989
12552.200      1.0000     0.9989
12552.300      1.0007     0.9989
12552.400      1.0016     0.9989
12552.500      1.0029     0.9989
12552.600      1.0046     0.9989
12552.700      1.0063     0.9989
12552.800      1.0079     0.9989
12552.900      1.0080     0.9989
12553.000      1.0044     0.9989
12553.100      1.0000     0.9989
12553.200      0.9951     0.9989
12553.300      0.9904     0.9989
12553.400      0.9887     0.9989
12553.500      0.9882     0.9989
12553.600      0.9887     0.9989
12553.700      0.9893     0.9989
12553.800      0.9898     0.9989
12553.900      0.9900     0.9989
12554.000      0.9886     0.9989
12554.100      0.9866     0.9989
12554.200      0.9852     0.9988
12554.300      0.9851     0.9988
12554.400      0.9873     0.9988
12554.500      0.9912     0.9988
12554.600      0.9940     0.9989
12554.700      0.9940     0.9989
12554.800      0.9935     0.9989
12554.900      0.9927     0.9989
12555.000      0.9922     0.9989
12555.100      0.9939     0.9988
12555.200      0.9956     0.9988
12555.300      0.9951     0.9988
12555.400      0.9944     0.9987
12555.500      0.9939     0.9985
12555.600      0.9939     0.9982
12555.700      0.9949     0.9980
12555.800      0.9963     0.9979
12555.900      0.9958     0.9979
12556.000      0.9940     0.9981
12556.100      0.9924     0.9983
12556.200      0.9917     0.9985
12556.300      0.9923     0.9987
12556.400      0.9945     0.9988
12556.500      0.9964     0.9988
12556.600      0.9975     0.9987
12556.700      0.9980     0.9986
12556.800      0.9978     0.9985
12556.900      0.9976     0.9984
12557.000      0.9972     0.9984
12557.100      0.9968     0.9984
12557.200      0.9973     0.9985
12557.300      0.9980     0.9986
12557.400      0.9972     0.9987
12557.500      0.9924     0.9987
12557.600      0.9671     0.9987
12557.700      0.9279     0.9987
12557.800      0.8865     0.9987
12557.900      0.8446     0.9988
12558.000      0.8175     0.9988
12558.100      0.8310     0.9988
12558.200      0.8666     0.9988
12558.300      0.9168     0.9988
12558.400      0.9649     0.9988
12558.500      0.9893     0.9988
12558.600      1.0020     0.9988
12558.700      1.0004     0.9988
12558.800      0.9987     0.9988
12558.900      0.9994     0.9988
12559.000      1.0005     0.9988
12559.100      1.0013     0.9988
12559.200      1.0016     0.9988
12559.300      1.0014     0.9988
12559.400      1.0008     0.9988
12559.500      1.0004     0.9988
12559.600      1.0001     0.9988
12559.700      1.0002     0.9988
12559.800      1.0005     0.9988
12559.900      1.0005     0.9988
12560.000      0.9996     0.9988
12560.100      0.9989     0.9988
12560.200      0.9990     0.9988
12560.300      0.9991     0.9987
12560.400      0.9985     0.9987
12560.500      0.9975     0.9987
12560.600      0.9953     0.9987
12560.700      0.9929     0.9987
12560.800      0.9952     0.9987
12560.900      0.9989     0.9986
12561.000      1.0022     0.9985
12561.100      1.0043     0.9984
12561.200      1.0040     0.9981
12561.300      1.0019     0.9977
12561.400      1.0005     0.9967
12561.500      1.0003     0.9943
12561.600      0.9998     0.9886
12561.700      0.9983     0.9775
12561.800      0.9970     0.9594
12561.900      0.9969     0.9367
12562.000      0.9968     0.9156
12562.100      0.9945     0.9047
12562.200      0.9922     0.9087
12562.300      0.9908     0.9260
12562.400      0.9903     0.9490
12562.500      0.9915     0.9700
12562.600      0.9930     0.9846
12562.700      0.9930     0.9927
12562.800      0.9922     0.9964
12562.900      0.9920     0.9978
12563.000      0.9937     0.9983
12563.100      0.9979     0.9984
12563.200      1.0043     0.9985
12563.300      1.0097     0.9986
12563.400      1.0108     0.9986
12563.500      1.0091     0.9986
12563.600      1.0044     0.9986
12563.700      0.9998     0.9986
12563.800      1.0019     0.9986
12563.900      1.0039     0.9985
12564.000      1.0053     0.9984
12564.100      1.0058     0.9982
12564.200      1.0045     0.9980
12564.300      1.0027     0.9978
12564.400      1.0017     0.9977
12564.500      1.0020     0.9977
12564.600      1.0038     0.9979
12564.700      1.0062     0.9981
12564.800      1.0082     0.9983
12564.900      1.0090     0.9984
12565.000      1.0089     0.9985
12565.100      1.0080     0.9986
12565.200      1.0065     0.9986
12565.300      1.0045     0.9987
12565.400      1.0018     0.9987
12565.500      0.9976     0.9987
12565.600      0.9935     0.9987
12565.700      0.9938     0.9987
12565.800      0.9945     0.9987
12565.900      0.9934     0.9987
12566.000      0.9917     0.9987
12566.100      0.9902     0.9987
12566.200      0.9888     0.9987
12566.300      0.9863     0.9986
12566.400      0.9829     0.9986
12566.500      0.9798     0.9986
12566.600      0.9781     0.9986
12566.700      0.9787     0.9986
12566.800      0.9823     0.9986
12566.900      0.9857     0.9986
12567.000      0.9881     0.9986
12567.100      0.9897     0.9986
12567.200      0.9897     0.9986
12567.300      0.9897     0.9985
12567.400      0.9918     0.9985
12567.500      0.9940     0.9985
12567.600      0.9952     0.9985
12567.700      0.9956     0.9984
12567.800      0.9951     0.9984
12567.900      0.9945     0.9984
12568.000      0.9961     0.9983
12568.100      0.9996     0.9982
12568.200      1.0005     0.9980
12568.300      0.9981     0.9974
12568.400      0.9969     0.9958
12568.500      0.9988     0.9918
12568.600      1.0012     0.9835
12568.700      1.0038     0.9694
12568.800      1.0063     0.9508
12568.900      1.0050     0.9323
12569.000      1.0038     0.9210
12569.100      1.0031     0.9218
12569.200      1.0028     0.9339
12569.300      1.0029     0.9510
12569.400      1.0032     0.9652
12569.500      1.0037     0.9706
12569.600      1.0041     0.9654
12569.700      1.0045     0.9511
12569.800      1.0045     0.9319
12569.900      1.0030     0.9137
12570.000      1.0001     0.9025
12570.100      0.9976     0.9022
12570.200      0.9961     0.9130
12570.300      0.9948     0.9314
12570.400      0.9936     0.9519
12570.500      0.9923     0.9697
12570.600      0.9905     0.9824
12570.700      0.9886     0.9901
12570.800      0.9937     0.9942
12570.900      0.9993     0.9961
12571.000      1.0021     0.9970
12571.100      1.0028     0.9975
12571.200      1.0018     0.9977
12571.300      1.0003     0.9979
12571.400      0.9990     0.9980
12571.500      0.9977     0.9981
12571.600      0.9965     0.9982
12571.700      0.9953     0.9983
12571.800      0.9952     0.9983
12571.900      0.9973     0.9984
12572.000      0.9993     0.9984
12572.100      1.0012     0.9984
12572.200      1.0023     0.9984
12572.300      0.9985     0.9985
12572.400      0.9947     0.9985
12572.500      0.9929     0.9985
12572.600      0.9930     0.9985
12572.700      0.9971     0.9985
12572.800      1.0017     0.9985
12572.900      1.0005     0.9985
12573.000      0.9967     0.9985
12573.100      0.9935     0.9985
12573.200      0.9909     0.9986
12573.300      0.9888     0.9986
12573.400      0.9868     0.9986
12573.500      0.9848     0.9986
12573.600      0.9820     0.9986
12573.700      0.9781     0.9986
12573.800      0.9682     0.9986
12573.900      0.9478     0.9986
12574.000      0.8934     0.9986
12574.100      0.8390     0.9985
12574.200      0.7933     0.9985
12574.300      0.7605     0.9984
12574.400      0.7847     0.9982
12574.500      0.8262     0.9981
12574.600      0.8751     0.9981
12574.700      0.9248     0.9981
12574.800      0.9534     0.9982
12574.900      0.9636     0.9983
12575.000      0.9691     0.9984
12575.100      0.9730     0.9985
12575.200      0.9755     0.9985
12575.300      0.9774     0.9986
12575.400      0.9781     0.9985
12575.500      0.9779     0.9985
12575.600      0.9778     0.9984
12575.700      0.9778     0.9983
12575.800      0.9782     0.9983
12575.900      0.9835     0.9982
12576.000      0.9888     0.9982
12576.100      0.9917     0.9983
12576.200      0.9927     0.9983
12576.300      0.9916     0.9983
12576.400      0.9902     0.9984
12576.500      0.9896     0.9984
12576.600      0.9900     0.9984
12576.700      0.9916     0.9985
12576.800      0.9937     0.9985
12576.900      0.9961     0.9986
12577.000      0.9986     0.9986
12577.100      1.0007     0.9986
12577.200      1.0011     0.9986
12577.300      1.0008     0.9986
12577.400      1.0002     0.9986
12577.500      0.9990     0.9986
12577.600      0.9971     0.9986
12577.700      0.9951     0.9986
12577.800      0.9949     0.9986
12577.900      0.9955     0.9986
12578.000      0.9963     0.9985
12578.100      0.9976     0.9985
12578.200      1.0000     0.9985
12578.300      1.0028     0.9984
12578.400      1.0053     0.9983
12578.500      1.0068     0.9981
12578.600      1.0070     0.9979
12578.700      1.0061     0.9978
12578.800      1.0057     0.9978
12578.900      1.0066     0.9980
12579.000      1.0075     0.9982
12579.100      1.0073     0.9983
12579.200      1.0062     0.9984
12579.300      1.0029     0.9985
12579.400      0.9995     0.9985
12579.500      0.9990     0.9985
12579.600      0.9997     0.9985
12579.700      1.0013     0.9984
12579.800      1.0030     0.9984
12579.900      1.0043     0.9984
12580.000      1.0054     0.9984
12580.100      1.0067     0.9984
12580.200      1.0080     0.9984
12580.300      1.0080     0.9983
12580.400      1.0054     0.9982
12580.500      1.0022     0.9978
12580.600      0.9987     0.9972
12580.700      0.9952     0.9961
12580.800      0.9920     0.9944
12580.900      0.9894     0.9917
12581.000      0.9885     0.9872
12581.100      0.9891     0.9788
12581.200      0.9920     0.9640
12581.300      0.9952     0.9422
12581.400      0.9972     0.9174
12581.500      0.9979     0.8980
12581.600      0.9969     0.8924
12581.700      0.9953     0.9033
12581.800      0.9951     0.9261
12581.900      0.9968     0.9519
12582.000      0.9993     0.9730
12582.100      1.0022     0.9865
12582.200      1.0044     0.9935
12582.300      1.0042     0.9965
12582.400      1.0033     0.9976
12582.500      1.0022     0.9980
12582.600      1.0010     0.9982
12582.700      1.0000     0.9983
12582.800      0.9993     0.9983
12582.900      1.0008     0.9983
12583.000      1.0026     0.9984
12583.100      1.0036     0.9984
12583.200      1.0040     0.9984
12583.300      1.0038     0.9984
12583.400      1.0032     0.9983
12583.500      1.0022     0.9981
12583.600      1.0011     0.9977
12583.700      1.0003     0.9971
12583.800      1.0004     0.9966
12583.900      1.0011     0.9962
12584.000      1.0023     0.9964
12584.100      1.0030     0.9968
12584.200      1.0013     0.9974
12584.300      0.9986     0.9979
12584.400      0.9951     0.9982
12584.500      0.9915     0.9984
12584.600      0.9922     0.9984
12584.700      0.9946     0.9984
12584.800      0.9981     0.9984
12584.900      1.0017     0.9984
12585.000      1.0018     0.9984
12585.100      1.0002     0.9984
12585.200      0.9991     0.9984
12585.300      0.9987     0.9984
12585.400      0.9985     0.9984
12585.500      0.9983     0.9985
12585.600      0.9978     0.9985
12585.700      0.9964     0.9985
12585.800      0.9952     0.9985
12585.900      0.9948     0.9985
12586.000      0.9942     0.9985
12586.100      0.9901     0.9985
12586.200      0.9859     0.9984
12586.300      0.9820     0.9984
12586.400      0.9786     0.9984
12586.500      0.9792     0.9984
12586.600      0.9819     0.9984
12586.700      0.9859     0.9984
12586.800      0.9900     0.9984
12586.900      0.9935     0.9984
12587.000      0.9957     0.9984
12587.100      0.9961     0.9984
12587.200      0.9950     0.9984
12587.300      0.9947     0.9984
12587.400      0.9959     0.9984
12587.500      0.9969     0.9984
12587.600      0.9969     0.9984
12587.700      0.9970     0.9984
12587.800      0.9975     0.9984
12587.900      0.9983     0.9984
12588.000      0.9998     0.9984
12588.100      1.0014     0.9984
12588.200      1.0021     0.9984
12588.300      1.0021     0.9984
12588.400      1.0007     0.9984
12588.500      0.9989     0.9984
12588.600      0.9986     0.9984
12588.700      0.9992     0.9984
12588.800      0.9990     0.9984
12588.900      0.9976     0.9983
12589.000      0.9963     0.9983
12589.100      0.9958     0.9982
12589.200      0.9966     0.9982
12589.300      1.0000     0.9982
12589.400      1.0029     0.9983
12589.500      0.9979     0.9983
12589.600      0.9917     0.9984
12589.700      0.9846     0.9984
12589.800      0.9776     0.9984
12589.900      0.9716     0.9984
12590.000      0.9675     0.9984
12590.100      0.9711     0.9984
12590.200      0.9776     0.9984
12590.300      0.9819     0.9984
12590.400      0.9788     0.9984
12590.500      0.9518     0.9983
12590.600      0.9001     0.9982
12590.700      0.8450     0.9981
12590.800      0.7889     0.9978
12590.900      0.7441     0.9974
12591.000      0.7591     0.9971
12591.100      0.8001     0.9968
12591.200      0.8635     0.9968
12591.300      0.9270     0.9970
12591.400      0.9642     0.9974
12591.500      0.9861     0.9978
12591.600      0.9910     0.9981
12591.700      0.9919     0.9982
12591.800      0.9917     0.9983
12591.900      0.9900     0.9984
12592.000      0.9834     0.9984
12592.100      0.9743     0.9984
12592.200      0.9671     0.9984
12592.300      0.9654     0.9984
